StartTime: 2018-11-22 16:32:19.868
Time(s)	ax(g)	ay(g)	az(g)	AngleX(deg)	AngleY(deg)	AngleZ(deg)	T(Â°) 
589.465	0.1626	-0.0938	1.0137	-5.2405	-8.4595	2.3291	26.7700 
589.502	0.1641	-0.0908	1.0137	-5.2405	-8.4540	2.3236	26.7600 
589.505	0.1621	-0.0923	1.0146	-5.2405	-8.4540	2.3181	26.7600 
589.523	0.1636	-0.0918	1.0127	-5.2350	-8.4540	2.3126	26.7500 
589.543	0.1636	-0.0913	1.0117	-5.2295	-8.4540	2.3071	26.7500 
589.563	0.1631	-0.0908	1.0117	-5.2295	-8.4540	2.3016	26.7500 
589.582	0.1616	-0.0918	1.0156	-5.2240	-8.4540	2.2961	26.7700 
589.602	0.1631	-0.0923	1.0137	-5.2185	-8.4540	2.2906	26.7700 
589.622	0.1641	-0.0918	1.0127	-5.2185	-8.4595	2.2906	26.7600 
589.642	0.1631	-0.0903	1.0122	-5.2130	-8.4595	2.2961	26.7600 
589.662	0.1636	-0.0908	1.0127	-5.2075	-8.4595	2.2961	26.7700 
589.681	0.1626	-0.0938	1.0161	-5.1965	-8.4595	2.2906	26.7800 
589.701	0.1641	-0.0923	1.0132	-5.1855	-8.4705	2.2906	26.7800 
589.740	0.1641	-0.0898	1.0161	-5.1691	-8.4760	2.2906	26.7800 
589.742	0.1636	-0.0898	1.0151	-5.1526	-8.4869	2.2852	26.7500 
589.761	0.1641	-0.0884	1.0112	-5.1416	-8.4924	2.2852	26.7800 
589.782	0.1665	-0.0903	1.0122	-5.1251	-8.4979	2.2852	26.7800 
589.801	0.1646	-0.0908	1.0151	-5.1251	-8.4924	2.2906	26.7800 
589.821	0.1641	-0.0913	1.0195	-5.1141	-8.4924	2.2961	26.7800 
589.842	0.1631	-0.0923	1.0195	-5.1031	-8.4924	2.2961	26.7900 
589.861	0.1641	-0.0918	1.0210	-5.0812	-8.4924	2.2852	26.7700 
589.882	0.1685	-0.0869	1.0137	-5.0482	-8.4924	2.2742	26.7800 
589.929	0.1641	-0.0859	1.0098	-5.0208	-8.4924	2.2742	26.7700 
589.932	0.1680	-0.0879	1.0107	-5.0043	-8.4814	2.2797	26.7900 
589.941	0.1699	-0.0889	1.0132	-4.9878	-8.4760	2.2797	26.7900 
589.961	0.1694	-0.0889	1.0151	-4.9823	-8.4650	2.2742	26.7800 
589.981	0.1582	-0.0830	1.0146	-4.9768	-8.4430	2.2632	26.7700 
590.001	0.1528	-0.0850	1.0161	-4.9713	-8.4210	2.2467	26.7800 
590.021	0.1616	-0.0913	1.0151	-4.9493	-8.4155	2.2302	26.7800 
590.040	0.1680	-0.0874	1.0127	-4.8999	-8.4210	2.2192	26.7700 
590.060	0.1733	-0.0889	1.0059	-4.8450	-8.4210	2.2028	26.7800 
590.081	0.1616	-0.0840	1.0083	-4.8010	-8.4155	2.1863	26.7700 
590.123	0.1533	-0.0850	1.0190	-4.7571	-8.3990	2.1588	26.7700 
590.124	0.1504	-0.0850	1.0229	-4.6967	-8.3990	2.1094	26.7800 
590.140	0.1636	-0.0796	1.0151	-4.5923	-8.4210	2.0435	26.7800 
590.160	0.1660	-0.0723	1.0088	-4.4659	-8.4650	1.9940	26.7800 
590.180	0.1567	-0.0684	1.0137	-4.3396	-8.5089	1.9666	26.7800 
590.199	0.1602	-0.0674	1.0146	-4.2188	-8.5474	1.9391	26.7900 
590.220	0.1646	-0.0664	1.0137	-4.1199	-8.5803	1.9116	26.7800 
590.239	0.1724	-0.0698	1.0122	-4.0430	-8.6133	1.8896	26.7800 
590.259	0.1597	-0.0684	1.0205	-3.9825	-8.6353	1.8677	26.7600 
590.279	0.1548	-0.0654	1.0210	-3.9111	-8.6627	1.8237	26.7800 
590.299	0.1670	-0.0601	1.0083	-3.8287	-8.7177	1.7853	26.7800 
590.319	0.1563	-0.0586	1.0137	-3.7573	-8.7781	1.7523	26.7700 
590.362	0.1646	-0.0654	1.0171	-3.7024	-8.8715	1.7029	26.7800 
590.365	0.1763	-0.0615	1.0083	-3.6530	-8.9758	1.6644	26.7900 
590.379	0.1812	-0.0630	1.0049	-3.6035	-9.0747	1.6370	26.7900 
590.399	0.1616	-0.0527	1.0200	-3.5760	-9.1791	1.6095	26.7900 
590.418	0.1846	-0.0518	0.9912	-3.5925	-9.2889	1.5765	26.7900 
590.439	0.1787	-0.0664	1.0122	-3.6365	-9.4098	1.5601	26.7800 
590.458	0.1909	-0.0703	1.0049	-3.7079	-9.5361	1.5710	26.7900 
590.478	0.1855	-0.0708	1.0122	-3.7848	-9.6680	1.5820	26.7800 
590.498	0.1792	-0.0542	1.0015	-3.8507	-9.7833	1.5820	26.8000 
590.557	0.1958	-0.0537	0.9907	-3.9386	-9.9097	1.5710	26.8000 
590.559	0.2085	-0.0615	0.9839	-4.1528	-10.0745	1.6095	26.8000 
590.559	0.2061	-0.0801	1.0146	-4.4659	-10.1953	1.6809	26.7900 
590.578	0.1953	-0.0967	1.0225	-4.8285	-10.2448	1.7578	26.8000 
590.598	0.1973	-0.0972	1.0151	-5.1471	-10.2502	1.8182	26.8000 
590.618	0.1929	-0.0908	1.0103	-5.4547	-10.2283	1.8732	26.7800 
590.637	0.1924	-0.1011	1.0146	-5.7898	-10.2063	1.9391	26.7900 
590.657	0.2041	-0.1050	1.0039	-6.1523	-10.1788	2.0270	26.8000 
590.677	0.1875	-0.1104	1.0000	-6.5424	-10.1184	2.1204	26.7800 
590.697	0.1709	-0.1079	1.0039	-6.9379	-10.0085	2.2083	26.7800 
590.744	0.1831	-0.1211	0.9907	-7.3334	-9.8822	2.2852	26.7800 
590.746	0.1816	-0.1211	0.9995	-7.7344	-9.7064	2.3566	26.7800 
590.757	0.1851	-0.1318	0.9922	-8.2178	-9.4922	2.4554	26.8100 
590.776	0.1738	-0.1558	1.0034	-8.8000	-9.2175	2.5928	26.8000 
590.801	0.1680	-0.1558	0.9912	-9.3933	-8.8330	2.6971	26.7800 
590.816	0.1577	-0.1704	1.0010	-9.9976	-8.3826	2.7521	26.8000 
590.836	0.1602	-0.1802	1.0039	-10.5908	-7.9266	2.7740	26.8100 
590.856	0.1553	-0.1826	1.0015	-11.2280	-7.4542	2.8015	26.8100 
590.876	0.1421	-0.2417	1.0298	-11.8982	-6.9763	2.8180	26.8100 
590.941	0.1309	-0.2227	1.0190	-12.3706	-6.4819	2.7795	26.8100 
590.943	0.1089	-0.2275	1.0283	-12.7332	-6.0095	2.7026	26.8000 
590.943	0.1021	-0.2207	1.0249	-13.1342	-5.5920	2.5873	26.8100 
590.956	0.1113	-0.2246	1.0293	-13.6890	-5.2240	2.4445	26.8100 
590.976	0.1040	-0.2344	1.0225	-14.5239	-4.8834	2.3236	26.8000 
590.995	0.1147	-0.2144	1.0264	-15.5786	-4.5758	2.2852	26.8100 
591.015	0.1152	-0.2192	1.0215	-16.9519	-4.2737	2.3456	26.8100 
591.036	0.1475	-0.1982	1.0488	-18.7482	-3.9551	2.6971	26.8400 
591.057	0.1411	0.0894	1.2583	-21.3794	-3.6694	3.4277	26.8200 
591.076	0.0938	-0.1089	1.4585	-27.0099	-3.4607	4.7021	26.8200 
591.096	0.1934	-0.1245	1.4536	-34.6509	-3.3508	6.4764	26.8200 
591.135	0.4673	-0.3408	1.3799	-43.6322	-2.6862	8.7341	26.8000 
591.139	0.7383	-0.7173	3.1011	-50.8337	-0.5054	9.5801	26.7900 
591.155	0.9556	0.3384	2.1196	-51.8610	1.2524	9.4043	26.8000 
591.175	0.6270	0.3291	0.8608	-49.5648	2.1039	9.1187	26.8100 
591.195	0.4126	0.2192	0.6143	-46.2305	2.7466	8.4814	26.8100 
591.215	0.5039	0.1646	0.7583	-43.2697	2.9608	8.1244	26.8000 
591.235	0.5186	0.0342	1.1650	-40.1605	2.4664	7.7728	26.8000 
591.254	0.3184	-0.0396	1.1729	-36.3538	1.5216	7.0807	26.7900 
591.274	-0.1060	-0.1211	0.8296	-31.7780	0.3790	6.1469	26.7900 
591.297	-0.2075	-0.1812	0.8491	-27.1967	-0.7361	5.4108	26.7900 
591.314	-0.1611	-0.2612	1.1577	-22.8790	-1.8292	5.0592	26.7800 
591.334	-0.1250	-0.2930	1.2725	-18.5669	-2.8235	4.8889	26.7900 
591.381	-0.1543	-0.3037	1.3125	-14.0845	-3.6639	4.7516	26.7800 
591.384	-0.1768	-0.3105	1.3345	-9.5636	-4.4550	4.6912	26.7800 
591.394	-0.1191	-0.3896	1.3833	-5.1746	-5.2954	4.8340	26.7800 
591.414	0.0532	-0.4546	1.3726	-1.0931	-6.2347	5.2789	26.7900 
591.433	0.3071	-0.4946	1.3848	2.6917	-7.3004	5.8447	26.7800 
591.454	0.3770	-0.4595	1.4038	6.2457	-8.4100	6.1798	26.7600 
591.474	0.4438	-0.4395	1.4644	9.4812	-9.5361	6.0919	26.7700 
591.495	0.4805	-0.4893	1.4541	12.5189	-10.7446	5.4492	26.7700 
591.513	0.3721	-0.6318	1.3794	15.4688	-11.8323	4.0759	26.7700 
591.533	0.1084	-0.7178	1.3872	18.2428	-12.3047	1.6534	26.7900 
591.568	-0.3701	-0.8086	1.0635	21.1981	-11.8542	-2.0325	26.7700 
591.573	-0.7266	-0.9189	0.8013	23.9447	-10.9808	-5.2899	26.7600 
591.593	-0.9673	-1.2720	0.6973	25.8948	-10.0800	-7.3718	26.7700 
591.613	-0.7490	-1.3877	0.3276	27.0758	-9.3823	-8.2343	26.7700 
591.633	-0.2383	-1.2236	0.2227	26.8835	-8.3331	-8.0695	26.7600 
591.653	-0.1245	-0.8774	0.3809	24.8511	-6.2238	-7.1906	26.7600 
591.674	0.8867	0.5342	0.6367	22.3956	-5.4877	-4.7076	26.7500 
591.693	0.7192	0.0659	0.7183	19.3964	-4.4055	-2.7795	26.7500 
591.713	-0.6914	0.0835	1.3979	15.4413	-2.9663	-2.2797	26.7500 
591.756	0.3413	-0.0742	1.5142	11.1237	-2.5928	-1.9006	26.7400 
591.758	-0.4106	-0.2451	2.1528	5.8667	-3.3563	-1.1481	26.7800 
591.772	0.1704	-0.1323	1.4180	2.7850	-4.3231	-1.1920	26.8000 
591.792	0.1929	-0.1055	1.1064	1.8073	-4.5044	-1.1865	26.8200 
591.812	0.1274	-0.1064	1.1235	1.2524	-4.5703	-1.1096	26.8200 
591.832	0.1064	-0.0747	1.0742	0.9229	-4.5868	-1.0602	26.7900 
591.852	0.1157	-0.0522	1.0181	0.8679	-4.6307	-1.0767	26.8000 
591.872	0.1440	-0.0522	1.0303	0.7581	-4.8230	-1.0931	26.8000 
591.891	0.1626	-0.0537	1.0073	0.5823	-5.0482	-1.0767	26.8100 
591.945	0.1606	-0.0635	1.0103	0.3680	-5.2405	-1.0107	26.8100 
591.947	0.1758	-0.0693	0.9990	-0.0330	-5.4382	-0.9009	26.8100 
591.951	0.1694	-0.0723	0.9888	-0.4504	-5.6525	-0.7581	26.8100 
591.971	0.1577	-0.1011	1.0249	-0.8240	-5.7458	-0.6042	26.8100 
591.991	0.1704	-0.1025	1.0205	-1.1371	-5.6799	-0.4779	26.8100 
592.011	0.1768	-0.0879	0.9956	-1.3898	-5.5865	-0.3461	26.8200 
592.031	0.1733	-0.0889	1.0024	-1.7029	-5.5042	-0.1758	26.8200 
592.050	0.1416	-0.1025	1.0244	-2.0544	-5.4053	0.0000	26.8000 
592.071	0.1396	-0.1069	1.0293	-2.3676	-5.3009	0.1813	26.8100 
592.090	0.1436	-0.1270	1.0288	-2.7026	-5.2130	0.3571	26.8000 
592.111	0.1343	-0.1196	1.0171	-3.0707	-5.0757	0.5383	26.8100 
592.130	0.1465	-0.1162	0.9951	-3.4277	-4.8120	0.7086	26.8200 
592.196	0.1353	-0.1055	0.9946	-3.8562	-4.4220	0.8679	26.8100 
592.198	0.1206	-0.1333	1.0083	-4.5319	-3.9771	1.0327	26.8100 
592.198	0.1055	-0.1504	1.0151	-5.3833	-3.4991	1.1865	26.8200 
592.210	0.0962	-0.1870	1.0352	-6.3007	-3.0267	1.3019	26.8200 
592.230	0.0996	-0.1987	1.0161	-7.3444	-2.6038	1.3788	26.8200 
592.250	0.0942	-0.1997	1.0083	-8.3716	-2.2083	1.4117	26.8100 
592.270	0.0830	-0.2314	1.0132	-9.1901	-1.7688	1.3843	26.8200 
592.289	0.0659	-0.2432	1.0298	-9.8328	-1.3733	1.2744	26.8500 
592.310	0.0688	-0.2471	1.0249	-10.5249	-1.0767	1.1426	26.8300 
592.329	0.0801	-0.2363	1.0371	-11.3983	-0.8240	1.0052	26.8400 
592.385	0.1011	-0.2490	1.0254	-12.4146	-0.5658	0.9229	26.8300 
592.387	0.1523	-0.2256	1.0474	-13.8977	-0.3461	1.1041	26.8400 
592.389	0.1206	-0.0854	1.0562	-16.0071	-0.1208	1.6809	26.8400 
592.409	0.0762	0.1523	1.5239	-19.3359	0.1154	2.8510	26.8600 
592.431	0.2476	0.0762	1.6831	-25.2411	0.6812	4.5813	26.8500 
592.450	0.5869	-0.3696	1.4795	-34.0576	2.1698	6.2567	26.8400 
592.472	0.4360	-0.0708	1.4595	-44.2914	5.8063	6.7731	26.8300 
592.489	0.8511	0.1309	4.3252	-51.4160	10.3381	4.9274	26.8300 
592.509	1.1597	0.4434	2.1924	-51.3831	11.4807	5.0867	26.8200 
592.531	0.7764	0.2061	0.4390	-48.0377	10.9094	5.3448	26.8300 
592.571	0.5142	0.1646	0.4663	-43.8794	9.9976	4.4220	26.8300 
592.572	0.3154	0.1636	1.0830	-39.9738	8.9813	3.2904	26.8100 
592.588	0.2349	0.1108	1.3057	-35.6946	7.6575	2.4060	26.8200 
592.608	-0.0820	-0.0171	0.9219	-30.3552	6.1469	1.6479	26.8300 
592.628	-0.2666	-0.1001	0.7852	-24.8071	4.7241	1.0986	26.8200 
592.648	-0.3633	-0.1709	1.1089	-19.7314	3.3179	1.0272	26.8200 
592.668	-0.3682	-0.2417	1.3369	-14.9249	1.8677	1.4337	26.8100 
592.687	-0.3105	-0.3643	1.3696	-10.0415	0.3955	2.0654	26.8100 
592.708	-0.2529	-0.4053	1.3271	-5.2020	-1.0327	2.7026	26.7900 
592.758	-0.1470	-0.4199	1.4360	-0.6372	-2.4774	3.2794	26.8000 
592.761	-0.0884	-0.4604	1.5352	3.6200	-4.0100	3.7793	26.8000 
592.767	0.0928	-0.5894	1.8042	7.6575	-5.6140	4.1968	26.8000 
592.787	0.2739	-0.6445	1.8989	11.7224	-7.1521	4.4220	26.7800 
592.808	0.3862	-0.7920	1.6392	15.8313	-8.5199	4.2682	26.7800 
592.827	0.3345	-0.8877	1.3833	19.8688	-9.8822	3.6639	26.7800 
592.847	-0.0229	-0.9795	1.0747	23.7195	-11.3159	2.3840	26.7800 
592.868	-0.2871	-1.1221	0.9614	27.2626	-12.1399	0.0714	26.7900 
592.887	-0.9121	-1.4668	0.7769	30.0256	-11.1017	-3.4442	26.7700 
592.907	-1.0107	-1.6738	0.4370	31.9537	-10.1129	-5.9326	26.7600 
592.929	-0.4482	-1.5767	0.2051	32.4976	-9.1846	-6.9434	26.7700 
592.947	-0.5679	-1.5005	0.2871	31.1737	-7.1576	-6.7181	26.7600 
592.999	0.1113	0.1396	0.8442	27.8943	-4.6198	-5.0098	26.7600 
593.001	1.0112	0.1621	0.9736	24.4556	-3.2794	-2.4280	26.7700 
593.006	-0.6304	-0.1216	1.6899	20.4840	-2.0984	-0.9009	26.7300 
593.026	-0.3267	0.0405	1.9824	16.5839	-1.1865	-0.7745	26.7300 
593.046	-0.0010	-0.3379	1.8320	12.6013	-1.3843	-0.0110	26.7800 
593.066	-0.0498	0.0347	1.3745	9.3439	-2.1698	0.0000	26.8100 
593.086	0.0659	-0.0259	1.2036	7.0532	-3.1256	0.1318	26.8000 
593.106	0.0889	-0.0757	1.1440	5.8722	-3.6090	0.2856	26.8100 
593.127	0.1274	-0.0605	1.0635	5.2679	-3.9276	0.4340	26.8100 
593.146	0.1074	-0.0776	1.0732	4.7131	-4.2242	0.4999	26.8100 
593.185	0.1177	-0.0566	1.0610	4.2407	-4.6362	0.5109	26.8200 
593.187	0.1587	-0.0659	1.0352	3.8123	-5.1361	0.5713	26.8200 
593.205	0.1943	-0.0630	0.9971	3.3179	-5.7129	0.7196	26.8000 
593.225	0.2056	-0.0679	0.9683	2.8070	-6.3116	0.9283	26.8300 
593.245	0.2363	-0.0913	0.9741	2.4060	-6.8774	1.2195	26.8200 
593.265	0.2134	-0.0820	0.9858	2.0819	-7.1851	1.5436	26.8200 
593.285	0.2163	-0.1016	1.0054	1.7139	-7.3334	1.8842	26.8200 
593.305	0.1812	-0.1035	1.0239	1.2030	-7.3663	2.2137	26.8200 
593.325	0.1802	-0.1240	1.0166	0.5713	-7.3004	2.5159	26.8100 
593.375	0.1841	-0.1226	1.0029	-0.0220	-7.1082	2.7795	26.8100 
593.378	0.1899	-0.1377	0.9878	-0.6921	-6.8170	3.0432	26.8100 
593.384	0.2041	-0.1548	1.0029	-1.2854	-6.6138	3.3453	26.8100 
593.411	0.1870	-0.1396	0.9927	-1.7303	-6.4325	3.6694	26.8300 
593.424	0.1738	-0.1450	0.9902	-2.1149	-6.1304	4.0210	26.8100 
593.444	0.1631	-0.1421	0.9927	-2.5433	-5.7239	4.3671	26.8200 
593.464	0.1445	-0.1650	1.0049	-3.3618	-5.3284	4.7021	26.8100 
593.484	0.1494	-0.2100	1.0098	-4.5099	-4.9438	5.0482	26.8100 
593.504	0.1025	-0.2354	1.0474	-5.5316	-4.3396	5.3064	26.8300 
593.524	0.1016	-0.2363	1.0288	-6.3556	-3.7573	5.4547	26.8300 
593.544	0.1006	-0.2417	1.0049	-7.1466	-3.3508	5.5536	26.8100 
593.563	0.1050	-0.2441	1.0244	-7.7179	-3.0157	5.5701	26.8100 
593.612	0.1016	-0.2495	1.0679	-8.2507	-2.6752	5.5426	26.8100 
593.614	0.0850	-0.2529	1.0386	-9.4318	-2.3511	5.5646	26.8100 
593.623	0.0859	-0.2090	1.0396	-10.8875	-2.0160	5.5811	26.8200 
593.643	0.0923	-0.1357	1.0566	-12.5409	-1.6974	5.6580	26.8200 
593.663	0.1021	0.1782	1.2656	-14.8206	-1.2140	6.0095	26.8400 
593.683	-0.0054	0.0864	1.6831	-19.1052	-0.3790	6.5259	26.8300 
593.703	0.2637	0.0215	1.8110	-27.8119	0.1923	7.2070	26.8400 
593.723	0.8442	0.0566	1.5376	-39.3311	-0.5273	9.1956	26.8300 
593.742	0.5015	-0.8545	4.8682	-48.7848	0.4944	10.8325	26.8100 
593.763	0.8408	0.6851	2.9761	-51.0425	2.7411	10.8875	26.8300 
593.802	0.7188	0.2974	0.3301	-48.4772	4.0814	11.0687	26.8100 
593.804	0.7139	0.1616	0.3325	-44.7748	5.2295	10.5139	26.8100 
593.823	0.7617	0.1885	1.0239	-41.0120	6.2842	9.4482	26.8000 
593.842	0.6875	0.0703	1.2085	-37.1942	6.5588	8.4375	26.8100 
593.862	0.4600	-0.1602	0.9775	-32.4756	5.7294	7.6135	26.7900 
593.882	0.2319	-0.2656	0.8984	-27.2021	4.2627	6.6742	26.7800 
593.902	-0.0635	-0.4341	1.0801	-21.9946	2.6422	5.6580	26.7900 
593.922	-0.1685	-0.5439	1.1064	-16.8475	1.0327	4.8230	26.7900 
593.944	-0.1001	-0.6357	1.1899	-11.7993	-0.4395	4.3286	26.7900 
593.988	-0.0303	-0.6655	1.3105	-7.0917	-1.7798	4.0649	26.8000 
593.992	-0.0059	-0.6396	1.3643	-2.5049	-3.0707	3.8013	26.7800 
594.002	-0.0908	-0.5977	1.3193	1.9391	-4.3011	3.4167	26.7800 
594.021	-0.1533	-0.5586	1.3384	6.0535	-5.5591	3.0652	26.7700 
594.041	-0.1152	-0.5640	1.4448	9.8328	-6.9049	2.8510	26.7800 
594.061	-0.0620	-0.5415	1.6406	13.4308	-8.1738	2.8455	26.7800 
594.081	0.0278	-0.5728	1.5835	17.0123	-9.2780	2.9553	26.7700 
594.101	0.1729	-0.7246	1.3540	20.5719	-10.4315	3.3838	26.7700 
594.121	0.2437	-0.8242	1.1333	24.1150	-11.6016	4.0375	26.7600 
594.175	0.2749	-0.9819	0.8511	27.3340	-12.6892	4.2847	26.7500 
594.179	0.1519	-1.1626	0.8306	30.0696	-13.6285	3.9661	26.7600 
594.184	-0.4692	-1.5811	0.4849	32.2998	-13.8702	2.7081	26.7600 
594.201	-0.6157	-1.7319	0.2017	33.8159	-12.6068	0.4120	26.7700 
594.220	-0.2368	-1.5889	-0.0503	33.2391	-12.3376	-0.0989	26.7700 
594.240	0.4751	-0.1235	0.8164	30.3223	-11.7883	1.4008	26.7500 
594.260	0.2661	0.3511	0.3027	27.0813	-9.8163	2.4994	26.7400 
594.280	-0.8091	-0.2456	1.9414	22.3737	-7.2894	3.0597	26.7300 
594.300	-0.3408	-0.0679	1.8794	18.2318	-5.9546	3.1036	26.7200 
594.320	1.1001	-0.0576	2.1333	14.1119	-6.0754	3.8947	26.7700 
594.343	0.0010	-0.2549	1.7476	10.3436	-6.1523	4.2682	26.7800 
594.360	0.1743	-0.0679	1.3916	7.3114	-7.1466	3.9496	26.7800 
594.425	0.0293	-0.0503	1.2324	5.9601	-7.5037	3.7958	26.8000 
594.428	0.1060	-0.0430	1.0664	5.1086	-7.7124	3.8232	26.8000 
594.428	0.1157	-0.0576	1.0615	4.3231	-7.9706	3.8892	26.8000 
594.440	0.1284	-0.0610	1.0420	3.8452	-8.1848	3.9496	26.7900 
594.459	0.1558	-0.0693	1.0381	3.5211	-8.3441	4.0210	26.8100 
594.479	0.1670	-0.0747	1.0181	3.0597	-8.5089	4.1364	26.7900 
594.499	0.1660	-0.0903	1.0249	2.5433	-8.6792	4.3011	26.7900 
594.519	0.1465	-0.0864	1.0210	1.9940	-8.7506	4.4550	26.8000 
594.540	0.1406	-0.0845	1.0137	1.3898	-8.8330	4.5923	26.7900 
594.559	0.1553	-0.0977	1.0015	0.8020	-8.9374	4.7681	26.7900 
594.579	0.1631	-0.0996	0.9941	0.1868	-9.0417	4.9713	26.8000 
594.615	0.1660	-0.1118	1.0044	-0.4834	-9.0912	5.2240	26.8000 
594.618	0.1577	-0.1279	1.0078	-1.1591	-8.9923	5.5261	26.7900 
594.638	0.1455	-0.1465	1.0103	-1.8677	-8.7891	5.8392	26.8000 
594.658	0.1396	-0.1392	1.0073	-2.6093	-8.5309	6.1249	26.8000 
594.678	0.1265	-0.1484	1.0068	-3.3728	-8.1573	6.3831	26.7900 
594.698	0.1323	-0.1665	1.0010	-4.3231	-7.7234	6.6193	26.7900 
594.718	0.1182	-0.2202	1.0171	-5.5206	-7.2400	6.8665	26.8100 
594.738	0.1226	-0.2373	1.0293	-6.7291	-6.6522	7.0642	26.8000 
594.758	0.0835	-0.2500	1.0439	-7.7289	-5.9601	7.1521	26.8000 
594.807	0.0791	-0.2202	1.0684	-8.4924	-5.3229	7.1686	26.8200 
594.810	0.0981	-0.1641	1.1133	-9.5471	-4.8450	7.1741	26.8100 
594.818	0.0918	-0.1143	1.0972	-11.3654	-4.4934	7.3608	26.8000 
594.837	0.1802	0.1631	1.3579	-14.7382	-4.2572	7.9376	26.8100 
594.859	0.0674	0.4380	1.8667	-20.5719	-4.3451	9.2560	26.8200 
594.877	0.5781	-0.0981	1.7603	-30.1630	-5.0702	12.1674	26.7900 
594.897	0.8486	-0.4287	3.3042	-37.1942	-3.8562	14.6393	26.7800 
594.917	0.8589	0.6084	1.6616	-38.2544	-2.0380	15.5621	26.8000 
594.937	0.7861	0.4941	1.0156	-37.2821	-0.8350	15.8917	26.7900 
594.957	0.4951	0.3579	0.6777	-35.0189	-0.1483	15.5457	26.8000 
594.998	0.3823	0.2720	0.6196	-32.2119	-0.2087	15.0128	26.7900 
595.000	0.2173	0.1807	0.8950	-28.8281	-0.7471	14.3701	26.7800 
595.016	0.0801	0.1177	1.0137	-25.0214	-1.4502	13.6176	26.7900 
595.037	-0.0845	-0.0210	1.0459	-20.8685	-2.2797	12.9419	26.7800 
595.057	-0.1680	-0.1226	1.0767	-16.4246	-3.1805	12.4146	26.7800 
595.076	-0.2593	-0.2173	1.1650	-11.7719	-4.0485	12.0575	26.7700 
595.096	-0.2559	-0.2534	1.2212	-7.1796	-4.8779	11.9366	26.7800 
595.118	-0.1182	-0.3140	1.2891	-2.8619	-5.7513	12.0245	26.7500 
595.136	0.0239	-0.3252	1.3940	1.2524	-6.6907	12.1893	26.7500 
595.157	0.1650	-0.3662	1.6753	5.3119	-7.6520	12.2388	26.7500 
595.176	0.1875	-0.3999	1.7466	9.4537	-8.5474	12.0300	26.7600 
595.196	0.2695	-0.5098	1.6118	13.5901	-9.3878	11.6400	26.7500 
595.236	0.3164	-0.6108	1.4482	17.5287	-10.2777	11.1237	26.7600 
595.238	0.2720	-0.7979	1.1938	21.1047	-11.3159	10.4425	26.7600 
595.256	0.1338	-0.9766	1.0913	24.4556	-12.2607	9.5856	26.7500 
595.276	-0.2695	-1.3101	0.8647	27.4713	-12.3486	8.0035	26.7600 
595.296	-0.6279	-1.6567	0.6206	29.9542	-10.9753	5.0977	26.7500 
595.315	-0.7661	-2.4692	-0.1602	30.9760	-9.7284	3.3179	26.7500 
595.336	-0.7627	-2.0610	-0.1499	29.5477	-7.6849	3.1696	26.7300 
595.356	0.3750	0.4951	1.3262	26.4221	-5.6085	4.3726	26.7200 
595.375	0.8540	0.0396	0.8032	23.0768	-4.5593	6.2622	26.7200 
595.422	-0.9160	-0.0151	1.7661	19.4678	-3.5321	6.9104	26.7200 
595.424	0.3735	0.3452	2.0796	15.9412	-3.2739	6.9763	26.7200 
595.434	-0.2500	-0.1309	1.6851	12.2388	-3.9880	7.5311	26.7600 
595.455	0.1597	-0.0044	1.1660	9.5746	-5.0977	7.1686	26.7700 
595.474	0.1211	-0.0112	1.1147	8.0255	-5.8942	6.9873	26.7800 
595.495	0.1021	-0.0601	1.1177	7.1851	-6.1249	6.9104	26.7800 
595.515	0.1074	-0.0654	1.0884	6.5204	-6.2292	6.8884	26.7700 
595.534	0.1240	-0.0527	1.0317	6.0040	-6.3281	6.8445	26.7900 
595.554	0.1279	-0.0469	1.0142	5.6580	-6.4050	6.8005	26.7700 
595.574	0.1514	-0.0444	0.9956	5.3943	-6.4764	6.7566	26.7700 
595.611	0.1465	-0.0537	1.0044	5.1416	-6.5643	6.7401	26.7800 
595.614	0.1514	-0.0591	1.0044	4.8395	-6.6962	6.7346	26.7900 
595.634	0.1567	-0.0562	1.0039	4.4385	-6.8994	6.7621	26.7800 
595.654	0.1543	-0.0996	1.0420	3.9880	-7.1082	6.8335	26.7800 
595.674	0.1450	-0.0781	1.0244	3.5980	-7.1466	6.8994	26.7800 
595.694	0.1475	-0.0801	1.0112	3.1256	-7.1411	6.9598	26.7800 
595.713	0.1470	-0.0771	1.0103	2.5488	-7.0917	7.0477	26.7800 
595.734	0.1504	-0.1001	1.0132	1.8457	-7.0038	7.1906	26.7700 
595.753	0.1460	-0.1279	1.0254	1.0876	-6.9159	7.4103	26.7800 
595.800	0.1372	-0.1177	1.0029	0.3351	-6.7291	7.6465	26.7700 
595.807	0.1260	-0.1216	0.9990	-0.4395	-6.4545	7.8662	26.7800 
