StartTime: 2018-11-15 20:11:00.594
Time(s)	AngleX(deg)	AngleY(deg)	AngleZ(deg)	T(Â°) 
2061.612	9.9261	17.8802	-9.2395	0.0000 
2061.635	9.9042	17.8802	-9.2450	0.0000 
2061.644	9.8712	17.8802	-9.2230	0.0000 
2061.664	9.8602	17.8638	-9.1681	0.0000 
2061.683	9.8492	17.8363	-9.1132	0.0000 
2061.758	9.8163	17.8143	-9.0692	0.0000 
2061.768	9.7998	17.8198	-9.0198	0.0000 
2061.769	9.8053	17.8198	-8.9264	0.0000 
2061.769	9.8273	17.8033	-8.8000	0.0000 
2061.791	9.8492	17.7869	-8.6462	0.0000 
2061.813	9.8932	17.7759	-8.4760	0.0000 
2061.824	9.9152	17.7649	-8.2837	0.0000 
2061.843	9.9536	17.7594	-8.0804	0.0000 
2061.862	10.0085	17.7484	-7.8442	0.0000 
2061.882	10.0745	17.7484	-7.5641	0.0000 
2061.902	10.1459	17.7704	-7.2729	0.0000 
2061.989	10.2228	17.7814	-6.9324	0.0000 
2061.995	10.2942	17.7539	-6.5259	0.0000 
2061.995	10.3326	17.6990	-6.1029	0.0000 
2061.995	10.3491	17.6495	-5.6964	0.0000 
2062.002	10.3656	17.6111	-5.3009	0.0000 
2062.022	10.3931	17.5452	-4.9109	0.0000 
2062.044	10.4095	17.4463	-4.5593	0.0000 
2062.067	10.3656	17.3584	-4.3066	0.0000 
2062.091	10.3107	17.3090	-4.1254	0.0000 
2062.164	10.2887	17.2980	-3.9771	0.0000 
2062.175	10.2942	17.2705	-3.8177	0.0000 
2062.175	10.2722	17.2321	-3.7024	0.0000 
2062.175	10.2173	17.2046	-3.6639	0.0000 
2062.181	10.1404	17.1991	-3.6749	0.0000 
2062.200	10.0635	17.2046	-3.7079	0.0000 
2062.220	9.9701	17.1991	-3.7958	0.0000 
2062.241	9.8547	17.1991	-3.9441	0.0000 
2062.262	9.7174	17.2101	-4.1254	0.0000 
2062.284	9.5856	17.2211	-4.2627	0.0000 
2062.307	9.4812	17.2266	-4.3066	0.0000 
2062.394	9.3878	17.2321	-4.2902	0.0000 
2062.400	9.2889	17.2540	-4.2847	0.0000 
2062.400	9.1846	17.3035	-4.3066	0.0000 
2062.400	9.0857	17.3804	-4.3451	0.0000 
2062.400	8.9648	17.4408	-4.3781	0.0000 
2062.426	8.8220	17.4738	-4.4000	0.0000 
2062.448	8.7067	17.5342	-4.4385	0.0000 
2062.460	8.6133	17.6056	-4.4769	0.0000 
2062.486	8.5199	17.6550	-4.4659	0.0000 
2062.514	8.4155	17.7100	-4.4440	0.0000 
2062.531	8.3002	17.7649	-4.4220	0.0000 
2062.539	8.2288	17.8088	-4.3781	0.0000 
2062.558	8.1409	17.8528	-4.3506	0.0000 
2062.644	7.9871	17.8857	-4.3726	0.0000 
2062.651	7.8442	17.9132	-4.4000	0.0000 
2062.651	7.7563	17.9132	-4.3890	0.0000 
2062.651	7.6630	17.8693	-4.3451	0.0000 
2062.658	7.5696	17.8088	-4.3176	0.0000 
2062.677	7.5366	17.7869	-4.2792	0.0000 
2062.699	7.5696	17.7814	-4.1913	0.0000 
2062.720	7.5421	17.7924	-4.1034	0.0000 
2062.742	7.4487	17.8363	-4.0759	0.0000 
2062.816	7.3608	17.8967	-4.0759	0.0000 
2062.827	7.2949	17.9407	-4.0759	0.0000 
2062.827	7.2290	17.9681	-4.0979	0.0000 
2062.827	7.1631	17.9736	-4.1364	0.0000 
2062.837	7.1082	17.9846	-4.1913	0.0000 
2062.856	7.0477	17.9956	-4.2627	0.0000 
2062.876	7.0313	18.0121	-4.3121	0.0000 
2062.896	7.0477	18.0231	-4.3396	0.0000 
2062.916	7.0752	18.0505	-4.4000	0.0000 
2062.993	7.0862	18.1000	-4.5264	0.0000 
2063.004	7.0642	18.1879	-4.7131	0.0000 
2063.004	7.0642	18.2648	-4.8779	0.0000 
2063.004	7.0807	18.3197	-5.0317	0.0000 
2063.026	7.0972	18.3691	-5.2240	0.0000 
2063.037	7.1576	18.4406	-5.4437	0.0000 
2063.056	7.2510	18.5065	-5.6689	0.0000 
2063.076	7.3553	18.5394	-5.8997	0.0000 
2063.096	7.4487	18.5834	-6.1578	0.0000 
2063.167	7.5421	18.6383	-6.4545	0.0000 
2063.177	7.6135	18.6987	-6.7841	0.0000 
2063.178	7.7069	18.7262	-7.1027	0.0000 
2063.184	7.8278	18.7372	-7.4213	0.0000 
2063.201	7.9431	18.7207	-7.7234	0.0000 
2063.223	8.0969	18.6877	-7.9486	0.0000 
2063.244	8.2892	18.6328	-8.0750	0.0000 
2063.266	8.5199	18.6053	-8.1573	0.0000 
2063.276	8.7341	18.6548	-8.2947	0.0000 
2063.294	8.8989	18.7482	-8.4979	0.0000 
2063.314	9.0253	18.8361	-8.7561	0.0000 
2063.398	9.1351	18.9075	-9.0472	0.0000 
2063.405	9.2340	18.9514	-9.3274	0.0000 
2063.405	9.2725	18.9624	-9.5856	0.0000 
2063.405	9.2670	18.9075	-9.7833	0.0000 
2063.414	9.2175	18.8306	-9.9426	0.0000 
2063.434	9.1351	18.7482	-10.0800	0.0000 
2063.454	9.0198	18.6273	-10.2118	0.0000 
2063.475	8.9209	18.4680	-10.2887	0.0000 
2063.496	8.8440	18.2867	-10.3217	0.0000 
2063.517	8.7671	18.1165	-10.3217	0.0000 
2063.540	8.6627	17.9736	-10.3271	0.0000 
2063.630	8.5474	17.8638	-10.3271	0.0000 
2063.637	8.4265	17.7429	-10.3162	0.0000 
2063.637	8.3167	17.6166	-10.3052	0.0000 
2063.637	8.2123	17.4792	-10.2887	0.0000 
2063.638	8.1299	17.3254	-10.2502	0.0000 
2063.661	8.0475	17.1552	-10.1788	0.0000 
2063.673	7.9651	16.9794	-10.0690	0.0000 
2063.692	7.9102	16.8091	-9.9316	0.0000 
2063.712	7.8552	16.6553	-9.7723	0.0000 
2063.732	7.8278	16.5454	-9.5691	0.0000 
2063.802	7.8333	16.4465	-9.2834	0.0000 
2063.813	7.8827	16.3751	-8.9209	0.0000 
2063.814	7.9651	16.3202	-8.5144	0.0000 
2063.820	8.0530	16.2817	-8.1079	0.0000 
2063.837	8.1519	16.2762	-7.7179	0.0000 
2063.859	8.2343	16.2762	-7.3499	0.0000 
2063.872	8.3112	16.2817	-6.9763	0.0000 
2063.891	8.3826	16.2982	-6.5918	0.0000 
2063.978	8.4760	16.3477	-6.1908	0.0000 
2063.984	8.6078	16.3971	-5.7349	0.0000 
2063.984	8.7506	16.4410	-5.2405	0.0000 
2063.984	8.9429	16.4795	-4.7021	0.0000 
2063.990	9.1241	16.5070	-4.1968	0.0000 
2064.010	9.3164	16.5289	-3.7518	0.0000 
2064.033	9.5087	16.6388	-3.4058	0.0000 
2064.055	9.6790	16.8091	-3.1531	0.0000 
2064.076	9.8547	16.9080	-2.8400	0.0000 
2064.099	9.9701	16.8530	-2.4829	0.0000 
2064.110	10.0140	16.7322	-2.1094	0.0000 
2064.130	10.0909	16.6553	-1.7413	0.0000 
2064.210	10.1239	16.6498	-1.4502	0.0000 
2064.216	10.0580	16.6937	-1.2524	0.0000 
2064.216	9.8932	16.7816	-1.1755	0.0000 
2064.216	9.6899	16.8640	-1.1096	0.0000 
2064.229	9.5361	16.9025	-0.9668	0.0000 
2064.249	9.4592	16.8860	-0.7471	0.0000 
2064.269	9.4263	16.8256	-0.5109	0.0000 
2064.289	9.4208	16.7377	-0.3076	0.0000 
2064.309	9.3768	16.6553	-0.1978	0.0000 
2064.380	9.3054	16.6388	-0.2032	0.0000 
2064.391	9.2230	16.6663	-0.2527	0.0000 
2064.391	9.1351	16.6882	-0.2582	0.0000 
2064.397	9.0198	16.6992	-0.2362	0.0000 
2064.414	8.8934	16.7047	-0.1813	0.0000 
2064.435	8.7781	16.7157	-0.1318	0.0000 
2064.457	8.6737	16.7212	-0.0989	0.0000 
2064.477	8.5748	16.7267	-0.1044	0.0000 
2064.490	8.4650	16.7267	-0.1758	0.0000 
2064.508	8.3771	16.7157	-0.2527	0.0000 
2064.528	8.3112	16.6882	-0.3241	0.0000 
2064.615	8.2727	16.6663	-0.4175	0.0000 
2064.621	8.2507	16.6827	-0.5988	0.0000 
2064.621	8.2562	16.7212	-0.8130	0.0000 
2064.621	8.2672	16.7487	-1.0272	0.0000 
2064.628	8.2507	16.7047	-1.2415	0.0000 
2064.648	8.2288	16.5344	-1.4337	0.0000 
2064.668	8.2233	16.3586	-1.6589	0.0000 
2064.692	8.2343	16.1993	-1.8787	0.0000 
2064.715	8.2452	16.0291	-2.0050	0.0000 
2064.736	8.3276	15.8972	-2.0270	0.0000 
2064.746	8.4320	15.8478	-2.0050	0.0000 
2064.766	8.5803	15.8423	-1.9775	0.0000 
2064.836	8.6737	15.8423	-2.0160	0.0000 
2064.847	8.6462	15.8588	-2.1808	0.0000 
2064.847	8.5583	15.8313	-2.3401	0.0000 
2064.854	8.4595	15.7874	-2.4664	0.0000 
2064.869	8.3276	15.7159	-2.5488	0.0000 
2064.891	8.1903	15.6500	-2.5928	0.0000 
2064.913	8.0914	15.6390	-2.5598	0.0000 
2064.934	7.9980	15.6830	-2.4994	0.0000 
2065.009	7.8772	15.7489	-2.4445	0.0000 
2065.020	7.7454	15.8258	-2.4335	0.0000 
2065.020	7.5751	15.8807	-2.4829	0.0000 
2065.021	7.4103	15.9192	-2.5818	0.0000 
2065.027	7.2620	15.9412	-2.7026	0.0000 
2065.045	7.1576	15.9467	-2.8015	0.0000 
2065.066	7.1136	15.9302	-2.8290	0.0000 
2065.086	7.0697	15.9082	-2.8015	0.0000 
2065.109	7.0477	15.9082	-2.7356	0.0000 
2065.131	7.0313	15.9357	-2.6532	0.0000 
2065.152	6.9818	15.9906	-2.5873	0.0000 
2065.164	6.9379	16.0730	-2.5159	0.0000 
2065.245	6.9159	16.1609	-2.4390	0.0000 
2065.256	6.8774	16.2268	-2.3456	0.0000 
2065.256	6.8500	16.2708	-2.2083	0.0000 
2065.256	6.8719	16.2982	-2.0160	0.0000 
2065.263	6.9379	16.3037	-1.8018	0.0000 
2065.283	7.0258	16.3037	-1.5985	0.0000 
2065.303	7.1191	16.3147	-1.4392	0.0000 
2065.324	7.2125	16.3531	-1.3019	0.0000 
2065.343	7.2839	16.3916	-1.1536	0.0000 
2065.424	7.3828	16.4026	-0.9338	0.0000 
2065.435	7.5311	16.4026	-0.6262	0.0000 
2065.435	7.7179	16.4081	-0.3076	0.0000 
2065.435	7.9486	16.4191	-0.0165	0.0000 
2065.442	8.2288	16.5070	0.2472	0.0000 
2065.462	8.4869	16.6608	0.4834	0.0000 
2065.482	8.7396	16.7816	0.7251	0.0000 
2065.502	8.8824	16.8201	0.9833	0.0000 
2065.523	8.9868	16.8146	1.3184	0.0000 
2065.545	9.1077	16.8256	1.6754	0.0000 
2065.566	9.1846	16.8640	1.9446	0.0000 
2065.657	9.1901	16.9409	2.0544	0.0000 
2065.664	9.1406	17.0178	2.0929	0.0000 
2065.664	9.0198	17.0398	2.1313	0.0000 
2065.664	8.8989	17.0068	2.1808	0.0000 
2065.664	8.7781	16.9629	2.1863	0.0000 
2065.689	8.6627	16.9354	2.1039	0.0000 
2065.713	8.5364	16.9299	1.9446	0.0000 
2065.721	8.4265	16.9299	1.7798	0.0000 
2065.740	8.3221	16.9244	1.6370	0.0000 
2065.761	8.2288	16.9189	1.5326	0.0000 
2065.835	8.1628	16.9464	1.4557	0.0000 
2065.845	8.0585	16.9904	1.3733	0.0000 
2065.845	7.9541	17.0728	1.2360	0.0000 
2065.845	7.8662	17.1497	1.0767	0.0000 
2065.869	7.7893	17.1991	0.9393	0.0000 
2065.891	7.7014	17.2595	0.7635	0.0000 
2065.900	7.6135	17.3419	0.5273	0.0000 
2065.920	7.5256	17.4243	0.2307	0.0000 
2065.940	7.5037	17.4847	-0.0494	0.0000 
2066.011	7.5751	17.5287	-0.2692	0.0000 
2066.023	7.7014	17.5946	-0.4504	0.0000 
2066.023	7.8387	17.7155	-0.6372	0.0000 
2066.029	7.9596	17.8198	-0.8350	0.0000 
2066.044	8.0640	17.8033	-1.0327	0.0000 
2066.067	8.1573	17.7209	-1.2524	0.0000 
2066.087	8.1793	17.5507	-1.5271	0.0000 
2066.110	8.2123	17.3254	-1.7303	0.0000 
2066.120	8.3386	17.1057	-1.7468	0.0000 
2066.140	8.4430	16.9244	-1.6699	0.0000 
2066.159	8.4485	16.8311	-1.6479	0.0000 
2066.242	8.4100	16.8475	-1.7303	0.0000 
2066.248	8.3386	16.9244	-1.9116	0.0000 
2066.248	8.1628	17.0123	-2.2247	0.0000 
2066.248	7.8992	17.0508	-2.6367	0.0000 
2066.258	7.5806	17.0013	-3.0048	0.0000 
2066.278	7.2620	16.8475	-3.2355	0.0000 
2066.299	6.9873	16.6333	-3.3289	0.0000 
2066.320	6.7456	16.4465	-3.3508	0.0000 
2066.344	6.5259	16.3312	-3.3673	0.0000 
2066.417	6.3336	16.2653	-3.4222	0.0000 
2066.429	6.1578	16.2488	-3.5266	0.0000 
2066.429	6.0040	16.2708	-3.6804	0.0000 
2066.429	5.8722	16.2982	-3.8397	0.0000 
2066.437	5.7678	16.3092	-3.9935	0.0000 
2066.457	5.6635	16.3257	-4.1364	0.0000 
2066.477	5.5920	16.3312	-4.2188	0.0000 
2066.496	5.5536	16.3422	-4.2517	0.0000 
2066.518	5.5481	16.3696	-4.2517	0.0000 
2066.539	5.5371	16.4136	-4.2407	0.0000 
2066.559	5.5206	16.4960	-4.2242	0.0000 
2066.652	5.5096	16.6003	-4.1583	0.0000 
2066.658	5.5316	16.7157	-4.0320	0.0000 
2066.658	5.5865	16.8256	-3.8617	0.0000 
2066.658	5.6799	16.9299	-3.6694	0.0000 
2066.658	5.8008	17.0288	-3.4717	0.0000 
2066.684	5.9601	17.1222	-3.2410	0.0000 
2066.696	6.1304	17.1661	-2.9608	0.0000 
2066.715	6.3171	17.1606	-2.6642	0.0000 
2066.736	6.5039	17.1167	-2.3511	0.0000 
2066.755	6.6687	17.1167	-2.1204	0.0000 
2066.826	6.8445	17.1716	-1.9666	0.0000 
2066.839	6.9873	17.2650	-1.8457	0.0000 
2066.839	7.1906	17.3090	-1.6425	0.0000 
2066.845	7.3993	17.2870	-1.3129	0.0000 
2066.861	7.5970	17.1936	-0.8405	0.0000 
2066.882	7.7838	17.0563	-0.3076	0.0000 
2066.903	7.8937	17.0123	0.1428	0.0000 
2066.915	7.9541	17.0892	0.4395	0.0000 
2066.934	7.8992	17.2375	0.5713	0.0000 
2066.954	7.7728	17.3859	0.6317	0.0000 
2066.973	7.5861	17.5232	0.6647	0.0000 
2067.062	7.4213	17.6495	0.6702	0.0000 
2067.068	7.2784	17.7374	0.6317	0.0000 
2067.068	7.1521	17.7924	0.5219	0.0000 
2067.068	7.0367	17.8143	0.3406	0.0000 
2067.074	6.9269	17.8363	0.1538	0.0000 
2067.094	6.8170	17.8638	-0.0055	0.0000 
2067.117	6.6852	17.9242	-0.1868	0.0000 
2067.137	6.5588	18.0341	-0.3735	0.0000 
2067.158	6.4105	18.1659	-0.5658	0.0000 
2067.238	6.2457	18.2922	-0.7690	0.0000 
2067.249	6.0809	18.4076	-0.9723	0.0000 
2067.249	5.9381	18.5010	-1.1810	0.0000 
2067.249	5.8063	18.5724	-1.4227	0.0000 
2067.255	5.6964	18.6218	-1.6864	0.0000 
2067.273	5.5975	18.6548	-1.9666	0.0000 
2067.292	5.5261	18.6768	-2.2137	0.0000 
2067.314	5.5096	18.6877	-2.4500	0.0000 
2067.335	5.4987	18.6877	-2.7081	0.0000 
2067.358	5.4767	18.6932	-3.0103	0.0000 
2067.383	5.4437	18.6823	-3.3453	0.0000 
2067.401	5.4108	18.6493	-3.6804	0.0000 
2067.476	5.3613	18.5999	-4.0100	0.0000 
2067.487	5.3229	18.5229	-4.3121	0.0000 
2067.488	5.2954	18.3801	-4.6088	0.0000 
2067.488	5.2734	18.1934	-4.9219	0.0000 
2067.503	5.2350	18.0011	-5.2954	0.0000 
2067.512	5.1746	17.8088	-5.6580	0.0000 
2067.536	5.1196	17.6276	-5.9601	0.0000 
2067.551	5.1196	17.4628	-6.1469	0.0000 
2067.571	5.1471	17.3749	-6.2842	0.0000 
2067.657	5.1965	17.3474	-6.4160	0.0000 
2067.663	5.2075	17.3804	-6.6083	0.0000 
2067.663	5.1526	17.4078	-6.8719	0.0000 
2067.663	5.0372	17.3969	-7.2180	0.0000 
2067.670	4.9658	17.3419	-7.5531	0.0000 
2067.691	4.9384	17.2430	-7.8168	0.0000 
2067.712	4.9438	17.1057	-7.9431	0.0000 
2067.734	4.9658	16.9958	-7.9816	0.0000 
2067.757	5.0098	16.9354	-7.9761	0.0000 
2067.779	5.0372	16.8970	-7.9761	0.0000 
2067.790	5.0702	16.8530	-7.9926	0.0000 
2067.809	5.0702	16.8036	-8.0365	0.0000 
2067.895	5.0702	16.7706	-8.0969	0.0000 
2067.901	5.0482	16.7432	-8.1628	0.0000 
2067.901	4.9988	16.6992	-8.2178	0.0000 
2067.901	4.9438	16.6278	-8.2397	0.0000 
2067.909	4.8944	16.5399	-8.2013	0.0000 
2067.928	4.8560	16.4740	-8.1354	0.0000 
2067.949	4.8450	16.4410	-8.0475	0.0000 
2067.973	4.8395	16.4355	-7.9266	0.0000 
2067.994	4.8450	16.4685	-7.7838	0.0000 
2068.069	4.8560	16.5454	-7.6520	0.0000 
2068.080	4.8615	16.6443	-7.5037	0.0000 
2068.080	4.8999	16.7377	-7.3279	0.0000 
2068.080	4.9548	16.8311	-7.1631	0.0000 
2068.088	5.0208	16.9189	-7.0038	0.0000 
2068.107	5.1086	16.9904	-6.8445	0.0000 
2068.127	5.1965	17.0508	-6.6907	0.0000 
2068.147	5.2844	17.1112	-6.5479	0.0000 
2068.167	5.3833	17.1826	-6.3885	0.0000 
2068.191	5.5151	17.2595	-6.1688	0.0000 
2068.211	5.6689	17.3309	-5.8997	0.0000 
2068.302	5.7843	17.4078	-5.6415	0.0000 
2068.308	5.9491	17.5616	-5.4163	0.0000 
2068.308	6.0864	17.8473	-5.2899	0.0000 
2068.308	6.1963	18.1549	-5.2350	0.0000 
2068.308	6.2292	18.3746	-5.1581	0.0000 
2068.333	6.2512	18.4241	-4.8560	0.0000 
2068.356	6.2897	18.4021	-4.4110	0.0000 
2068.367	6.2952	18.4241	-4.0375	0.0000 
2068.386	6.2512	18.5065	-3.8177	0.0000 
2068.406	6.1688	18.6273	-3.7354	0.0000 
2068.486	6.0590	18.7537	-3.7354	0.0000 
2068.487	5.9601	18.8470	-3.7299	0.0000 
2068.487	5.9601	18.9020	-3.6639	0.0000 
2068.493	6.0205	18.9240	-3.5925	0.0000 
2068.510	6.1084	18.9624	-3.6035	0.0000 
2068.531	6.1743	19.0393	-3.7024	0.0000 
2068.551	6.1853	19.1437	-3.8562	0.0000 
2068.575	6.1578	19.2645	-4.0155	0.0000 
2068.653	6.1084	19.3909	-4.1473	0.0000 
2068.664	6.0205	19.5007	-4.2737	0.0000 
2068.664	5.9216	19.6051	-4.4000	0.0000 
2068.665	5.8118	19.7040	-4.5428	0.0000 
2068.671	5.7074	19.7699	-4.7131	0.0000 
2068.687	5.6140	19.7974	-4.9054	0.0000 
2068.711	5.5316	19.7919	-5.1251	0.0000 
2068.729	5.4712	19.7424	-5.3558	0.0000 
2068.752	5.4327	19.6655	-5.5756	0.0000 
2068.773	5.4327	19.5667	-5.7678	0.0000 
2068.796	5.4547	19.4403	-5.9216	0.0000 
2068.804	5.4492	19.3140	-6.0864	0.0000 
2068.886	5.4492	19.2206	-6.2677	0.0000 
2068.893	5.3943	19.1327	-6.4984	0.0000 
2068.893	5.2679	19.0173	-6.7566	0.0000 
2068.893	5.1636	18.9020	-7.0422	0.0000 
2068.904	5.0702	18.7646	-7.3553	0.0000 
2068.923	5.0757	18.6108	-7.5641	0.0000 
2068.943	5.1855	18.5449	-7.7179	0.0000 
2068.963	5.2789	18.5559	-7.8552	0.0000 
2068.985	5.2954	18.6108	-8.0035	0.0000 
2069.062	5.2020	18.6438	-8.2178	0.0000 
2069.073	5.1306	18.6328	-8.4485	0.0000 
2069.073	5.0757	18.5944	-8.7067	0.0000 
2069.073	4.9933	18.5175	-8.9648	0.0000 
2069.082	4.9054	18.4131	-9.1461	0.0000 
2069.102	4.8120	18.3252	-9.2120	0.0000 
2069.122	4.7131	18.2813	-9.2120	0.0000 
2069.142	4.5813	18.2483	-9.1956	0.0000 
2069.162	4.4495	18.1989	-9.1901	0.0000 
2069.182	4.3781	18.1604	-9.2285	0.0000 
2069.203	4.3286	18.1110	-9.2999	0.0000 
2069.301	4.2517	18.0450	-9.3878	0.0000 
2069.301	4.1473	17.9736	-9.4702	0.0000 
2069.301	4.0649	17.8857	-9.4867	0.0000 
2069.301	3.9825	17.7814	-9.4373	0.0000 
2069.307	3.9276	17.6825	-9.3384	0.0000 
2069.327	3.8837	17.6001	-9.2010	0.0000 
2069.349	3.8342	17.5452	-9.0582	0.0000 
2069.369	3.7903	17.5232	-8.8879	0.0000 
2069.381	3.7903	17.5287	-8.6627	0.0000 
2069.471	3.8123	17.5397	-8.4210	0.0000 
2069.482	3.8782	17.5562	-8.1628	0.0000 
2069.482	3.9935	17.5726	-7.9047	0.0000 
2069.482	4.1199	17.5891	-7.6630	0.0000 
2069.488	4.2407	17.6221	-7.4597	0.0000 
2069.506	4.3561	17.6935	-7.2729	0.0000 
2069.525	4.4769	17.8143	-7.1027	0.0000 
2069.546	4.6088	17.9517	-6.8939	0.0000 
2069.568	4.7571	18.0890	-6.6028	0.0000 
2069.580	4.8505	18.2208	-6.3391	0.0000 
2069.599	4.9933	18.3801	-6.1139	0.0000 
2069.619	5.0922	18.6493	-6.0150	0.0000 
2069.702	5.0647	18.9404	-6.1084	0.0000 
2069.709	5.0427	19.1602	-6.2512	0.0000 
2069.709	5.0208	19.1876	-6.1908	0.0000 
2069.709	5.0812	19.1107	-5.8502	0.0000 
2069.718	5.1910	19.0558	-5.4382	0.0000 
2069.738	5.2185	19.0723	-5.1746	0.0000 
2069.758	5.1746	19.1437	-5.1086	0.0000 
2069.778	5.1031	19.2755	-5.1526	0.0000 
2069.801	5.0372	19.4073	-5.1581	0.0000 
2069.875	5.0757	19.4568	-4.9878	0.0000 
2069.886	5.2020	19.4238	-4.7516	0.0000 
2069.886	5.3229	19.3799	-4.6582	0.0000 
2069.886	5.3998	19.3744	-4.7516	0.0000 
2069.907	5.4108	19.4073	-4.9603	0.0000 
2069.918	5.3833	19.4513	-5.1746	0.0000 
2069.937	5.2954	19.5172	-5.3668	0.0000 
2069.958	5.2185	19.6106	-5.5371	0.0000 
2069.977	5.1416	19.6820	-5.6689	0.0000 
2069.996	5.0372	19.7260	-5.8228	0.0000 
2070.018	4.9164	19.7699	-6.0590	0.0000 
2070.107	4.8395	19.8029	-6.3171	0.0000 
2070.113	4.8120	19.7919	-6.5588	0.0000 
2070.113	4.8120	19.7534	-6.8060	0.0000 
2070.113	4.8560	19.7260	-7.0532	0.0000 
2070.119	4.9438	19.6930	-7.2620	0.0000 
2070.139	5.0647	19.6490	-7.4048	0.0000 
2070.161	5.1855	19.6106	-7.5311	0.0000 
2070.185	5.3174	19.5831	-7.6355	0.0000 
2070.206	5.4327	19.5447	-7.7399	0.0000 
2070.282	5.5371	19.4458	-7.8662	0.0000 
2070.293	5.6470	19.3085	-8.0365	0.0000 
2070.293	5.7623	19.1437	-8.2507	0.0000 
2070.293	5.8557	18.9679	-8.4760	0.0000 
2070.300	5.9546	18.7921	-8.6792	0.0000 
2070.316	6.1359	18.6768	-8.7781	0.0000 
2070.344	6.3226	18.5834	-8.8000	0.0000 
2070.360	6.4215	18.5065	-8.8330	0.0000 
2070.382	6.3831	18.4241	-8.9868	0.0000 
2070.403	6.3171	18.3417	-9.2175	0.0000 
2070.425	6.2677	18.2867	-9.4592	0.0000 
2070.436	6.2457	18.2208	-9.6240	0.0000 
2070.515	6.2292	18.1274	-9.6735	0.0000 
2070.526	6.2292	18.0615	-9.6515	0.0000 
2070.526	6.2402	18.0835	-9.5966	0.0000 
2070.526	6.2567	18.1219	-9.5581	0.0000 
2070.534	6.2897	18.1659	-9.5197	0.0000 
2070.555	6.3226	18.1879	-9.4702	0.0000 
2070.574	6.3171	18.1824	-9.4043	0.0000 
2070.594	6.2732	18.1769	-9.3658	0.0000 
2070.614	6.2238	18.1659	-9.3329	0.0000 
2070.690	6.1469	18.1659	-9.3054	0.0000 
2070.700	6.0480	18.1604	-9.2615	0.0000 
2070.700	5.9326	18.1439	-9.1846	0.0000 
2070.700	5.8063	18.1219	-9.0802	0.0000 
2070.723	5.6964	18.1055	-8.9429	0.0000 
2070.735	5.6415	18.0890	-8.7506	0.0000 
2070.754	5.6415	18.0615	-8.4760	0.0000 
2070.773	5.7184	18.0231	-8.1134	0.0000 
2070.792	5.8722	17.9626	-7.7124	0.0000 
2070.812	6.0370	17.8967	-7.3279	0.0000 
2070.833	6.1798	17.8473	-7.0367	0.0000 
2070.923	6.3336	17.8198	-6.8060	0.0000 
2070.929	6.5094	17.8033	-6.5808	0.0000 
2070.929	6.7291	17.7649	-6.2952	0.0000 
2070.929	6.9818	17.7484	-5.9106	0.0000 
2070.935	7.2345	17.7539	-5.5316	0.0000 
2070.956	7.4103	17.8198	-5.2954	0.0000 
2070.979	7.5916	17.9462	-5.1910	0.0000 
2071.001	7.7289	18.1714	-5.2130	0.0000 
2071.012	7.8662	18.3746	-5.2295	0.0000 
2071.100	7.9706	18.4021	-5.0482	0.0000 
2071.111	8.0035	18.2813	-4.6747	0.0000 
2071.111	8.0365	18.1549	-4.2517	0.0000 
2071.111	8.0750	18.1384	-3.9606	0.0000 
2071.117	8.0475	18.2043	-3.8562	0.0000 
2071.143	7.9541	18.2867	-3.8397	0.0000 
2071.156	7.8058	18.3636	-3.8562	0.0000 
2071.176	7.6520	18.3856	-3.8397	0.0000 
2071.198	7.5531	18.3527	-3.8013	0.0000 
2071.219	7.5311	18.2922	-3.7848	0.0000 
2071.231	7.5531	18.2703	-3.8507	0.0000 
2071.250	7.5531	18.2922	-3.9771	0.0000 
2071.333	7.4652	18.3746	-4.1583	0.0000 
2071.339	7.3114	18.5065	-4.3616	0.0000 
2071.339	7.1191	18.6548	-4.5264	0.0000 
2071.339	6.9708	18.7976	-4.6417	0.0000 
2071.349	6.8610	18.9075	-4.7516	0.0000 
2071.369	6.7566	19.0118	-4.9274	0.0000 
2071.389	6.6467	19.0778	-5.1636	0.0000 
2071.409	6.5204	19.1107	-5.4163	0.0000 
2071.432	6.4270	19.1217	-5.6525	0.0000 
2071.509	6.3721	19.1162	-5.8612	0.0000 
2071.521	6.3281	19.1162	-6.0480	0.0000 
